wavelength,file1,
-146.20303,56.0
-145.79652,56.0
-145.39003,64.0
-144.98354,53.0
-144.57703,60.0
-144.17053,60.0
-143.76402,55.0
-143.35753,57.0
-142.95102,54.0
-142.54453,61.0
-142.13803,47.0
-141.73152,52.0
-141.32504,53.0
-140.91853,60.0
-140.51202,60.0
-140.10555,60.0
-139.69905,52.0
-139.29254,63.0
-138.88605,61.0
-138.47955,63.0
-138.07306,62.0
-137.66656,62.0
-137.26009,58.0
-136.85359,60.0
-136.4471,60.0
-136.04062,64.0
-135.63412,60.0
-135.22763,62.0
-134.82114,60.0
-134.41467,60.0
-134.00818,62.0
-133.60168,54.0
-133.19522,62.0
-132.78874,61.0
-132.38225,53.0
-131.97578,61.0
-131.5693,62.0
-131.16283,60.0
-130.75636,63.0
-130.3499,56.0
-129.94342,64.0
-129.53694,60.0
-129.1305,56.0
-128.72403,57.0
-128.31755,57.0
-127.9111,65.0
-127.50464,62.0
-127.09818,54.0
-126.69172,63.0
-126.28528,58.0
-125.87882,61.0
-125.47237,60.0
-125.06593,54.0
-124.659485,43.0
-124.253044,58.0
-123.846596,65.0
-123.44016,62.0
-123.03372,52.0
-122.6273,61.0
-122.22086,60.0
-121.81443,63.0
-121.40801,62.0
-121.00159,56.0
-120.59516,55.0
-120.18874,60.0
-119.782326,63.0
-119.375916,59.0
-118.9695,60.0
-118.563095,61.0
-118.15669,60.0
-117.75029,61.0
-117.34389,41.0
-116.9375,54.0
-116.5311,58.0
-116.12471,53.0
-115.71833,62.0
-115.311935,61.0
-114.905556,57.0
-114.499176,59.0
-114.092804,63.0
-113.68643,61.0
-113.28007,51.0
-112.8737,63.0
-112.46734,63.0
-112.06098,53.0
-111.65463,64.0
-111.248276,62.0
-110.84193,58.0
-110.43558,63.0
-110.02924,52.0
-109.6229,63.0
-109.21657,50.0
-108.81024,61.0
-108.403915,63.0
-107.9976,60.0
-107.59128,61.0
-107.18496,52.0
-106.77864,60.0
-106.372345,68.0
-105.96604,48.0
-105.55974,65.0
-105.15345,59.0
-104.74716,56.0
-104.34087,57.0
-103.93459,53.0
-103.52832,62.0
-103.12204,61.0
-102.715775,40.0
-102.30951,61.0
-101.90325,56.0
-101.49699,61.0
-101.090744,61.0
-100.684494,58.0
-100.27825,59.0
-99.87202,53.0
-99.46579,63.0
-99.059555,65.0
-98.653336,43.0
-98.247116,56.0
-97.8409,59.0
-97.434685,61.0
-97.028496,51.0
-96.62229,64.0
-96.216095,63.0
-95.809906,56.0
-95.403725,52.0
-94.99754,64.0
-94.59137,47.0
-94.18521,53.0
-93.77904,63.0
-93.37288,61.0
-92.966736,57.0
-92.560585,58.0
-92.15444,63.0
-91.74831,62.0
-91.34218,52.0
-90.93605,63.0
-90.52993,53.0
-90.123825,59.0
-89.71771,56.0
-89.31161,63.0
-88.90552,60.0
-88.49942,62.0
-88.09333,64.0
-87.687256,57.0
-87.28118,57.0
-86.87511,57.0
-86.469055,55.0
-86.063,55.0
-85.656944,56.0
-85.25091,60.0
-84.84487,55.0
-84.438835,63.0
-84.03281,64.0
-83.62679,53.0
-83.22078,63.0
-82.81477,57.0
-82.408775,60.0
-82.002785,62.0
-81.596794,52.0
-81.19082,62.0
-80.78484,61.0
-80.378876,63.0
-79.97291,58.0
-79.56696,56.0
-79.16101,60.0
-78.755066,50.0
-78.34914,53.0
-77.943214,62.0
-77.53729,57.0
-77.13138,71.0
-76.72548,63.0
-76.31957,58.0
-75.91368,64.0
-75.507805,57.0
-75.10192,64.0
-74.696045,58.0
-74.290184,53.0
-73.88433,47.0
-73.47848,52.0
-73.07264,63.0
-72.66681,60.0
-72.26098,58.0
-71.85516,62.0
-71.44934,53.0
-71.04354,63.0
-70.63775,54.0
-70.23196,55.0
-69.82618,54.0
-69.420395,56.0
-69.01463,65.0
-68.60888,59.0
-68.203125,51.0
-67.797386,56.0
-67.39165,59.0
-66.98592,62.0
-66.58021,38.0
-66.174484,62.0
-65.76879,63.0
-65.36309,53.0
-64.957405,64.0
-64.55173,55.0
-64.14606,60.0
-63.7404,59.0
-63.334747,57.0
-62.929096,63.0
-62.52346,57.0
-62.11783,62.0
-61.71221,59.0
-61.306602,56.0
-60.900993,61.0
-60.4954,55.0
-60.089813,58.0
-59.68424,59.0
-59.27867,45.0
-58.873108,62.0
-58.46756,52.0
-58.06201,59.0
-57.656483,63.0
-57.25096,53.0
-56.84544,62.0
-56.439934,62.0
-56.03443,49.0
-55.62895,62.0
-55.223473,51.0
-54.817997,61.0
-54.412537,59.0
-54.00708,57.0
-53.60164,58.0
-53.19621,56.0
-52.79078,61.0
-52.38537,60.0
-51.979958,48.0
-51.574566,64.0
-51.16918,55.0
-50.7638,63.0
-50.358437,59.0
-49.95307,56.0
-49.54773,64.0
-49.142395,57.0
-48.73706,61.0
-48.331745,65.0
-47.926437,56.0
-47.521133,63.0
-47.11585,53.0
-46.710564,64.0
-46.305298,59.0
-45.900043,55.0
-45.49479,61.0
-45.089554,62.0
-44.68432,45.0
-44.279102,63.0
-43.873894,52.0
-43.468693,56.0
-43.063507,53.0
-42.658325,62.0
-42.253162,56.0
-41.848007,54.0
-41.442856,57.0
-41.037724,56.0
-40.632595,49.0
-40.22748,60.0
-39.82238,54.0
-39.417282,59.0
-39.012203,60.0
-38.607124,63.0
-38.202065,60.0
-37.79702,63.0
-37.391975,60.0
-36.98695,60.0
-36.581924,64.0
-36.17692,57.0
-35.771927,57.0
-35.36694,61.0
-34.961967,57.0
-34.55701,61.0
-34.152054,55.0
-33.747116,64.0
-33.342182,66.0
-32.937267,56.0
-32.532364,63.0
-32.127464,60.0
-31.722586,60.0
-31.317707,64.0
-30.91285,53.0
-30.508005,63.0
-30.10316,60.0
-29.69834,63.0
-29.293522,64.0
-28.888721,57.0
-28.483932,63.0
-28.079151,61.0
-27.674385,58.0
-27.269627,60.0
-26.864883,57.0
-26.460155,63.0
-26.055433,61.0
-25.650728,55.0
-25.246027,62.0
-24.841349,62.0
-24.43668,63.0
-24.032017,57.0
-23.627373,58.0
-23.222734,55.0
-22.818113,53.0
-22.413506,65.0
-22.008905,62.0
-21.604322,53.0
-21.199745,61.0
-20.795187,59.0
-20.390644,63.0
-19.986105,60.0
-19.581583,56.0
-19.177078,55.0
-18.772575,60.0
-18.368093,63.0
-17.96362,60.0
-17.559162,56.0
-17.154718,57.0
-16.75028,56.0
-16.345863,61.0
-15.941452,57.0
-15.53706,57.0
-15.132683,59.0
-14.72831,56.0
-14.323957,63.0
-13.919613,61.0
-13.5152855,58.0
-13.110973,59.0
-12.706667,55.0
-12.30238,62.0
-11.8981,43.0
-11.493841,64.0
-11.089596,62.0
-10.685356,53.0
-10.281137,65.0
-9.8769245,62.0
-9.472734,59.0
-9.068554,61.0
-8.664383,57.0
-8.260233,62.0
-7.8560905,60.0
-7.4519653,58.0
-7.0478573,61.0
-6.643753,57.0
-6.2396736,63.0
-5.835596,57.0
-5.4315434,53.0
-5.027504,64.0
-4.623472,43.0
-4.2194595,62.0
-3.815462,56.0
-3.4114723,60.0
-3.0075054,61.0
-2.6035442,57.0
-2.1996021,65.0
-1.7956772,61.0
-1.391758,52.0
-0.98786163,62.0
-0.583971,51.0
-0.18010521,61.0
0.22375107,59.0
0.6275978,62.0
1.0314217,63.0
1.4352379,53.0
1.8390408,63.0
2.242813,62.0
2.6465874,51.0
3.0503445,60.0
3.454071,56.0
3.8578014,61.0
4.2615147,60.0
4.6651974,56.0
5.06888,60.0
5.4725494,56.0
5.8761883,54.0
6.279827,62.0
6.683449,59.0
7.087059,61.0
7.490635,57.0
7.8942146,64.0
8.297773,63.0
8.701305,51.0
9.104837,56.0
9.508354,65.0
9.911839,49.0
10.315325,61.0
10.718794,56.0
11.122248,61.0
11.525671,57.0
11.929094,61.0
12.3325,57.0
12.735878,63.0
13.139252,61.0
13.542614,57.0
13.945938,63.0
14.349266,60.0
14.752579,60.0
15.155874,62.0
15.559141,56.0
15.962402,61.0
16.365652,56.0
16.768867,64.0
17.172083,61.0
17.575281,56.0
17.97845,62.0
18.381617,56.0
18.78477,56.0
19.187885,62.0
19.591003,60.0
19.994102,61.0
20.39719,60.0
20.800241,61.0
21.203293,62.0
21.606329,53.0
22.00933,64.0
22.412333,60.0
22.81532,57.0
23.218271,58.0
23.621223,58.0
24.024158,69.0
24.427076,64.0
24.829964,58.0
25.232843,62.0
25.635712,57.0
26.038546,64.0
26.44138,60.0
26.844194,59.0
27.246979,56.0
27.649761,55.0
28.052526,63.0
28.455273,62.0
28.857988,51.0
29.2607,60.0
29.663397,53.0
30.066057,63.0
30.468716,63.0
30.87136,57.0
31.27397,52.0
31.676577,60.0
32.07917,65.0
32.481728,61.0
32.884277,53.0
33.28682,59.0
33.68934,60.0
34.091827,60.0
34.49431,37.0
34.896774,62.0
35.29921,64.0
35.701637,57.0
36.10405,64.0
36.50643,62.0
36.908806,51.0
37.311165,60.0
37.7135,55.0
38.11581,61.0
38.518112,51.0
38.920395,61.0
39.322655,61.0
39.7249,53.0
40.12713,61.0
40.529327,62.0
40.931522,57.0
41.333694,62.0
41.735855,51.0
42.137974,61.0
42.540096,53.0
42.942196,59.0
43.344265,61.0
43.74633,56.0
44.148376,63.0
44.550385,49.0
44.952393,58.0
45.354378,65.0
45.75635,43.0
46.158287,61.0
46.56022,50.0
46.96213,63.0
47.364006,65.0
47.765884,51.0
48.167736,62.0
48.569557,62.0
48.971375,46.0
49.373177,63.0
49.77494,52.0
50.1767,64.0
50.578438,57.0
50.98016,57.0
51.381847,59.0
51.78353,55.0
52.18519,61.0
52.58682,63.0
52.98844,52.0
53.390045,64.0
53.791615,53.0
54.19318,65.0
54.594727,60.0
54.99625,56.0
55.39774,62.0
55.799225,53.0
56.20069,60.0
56.60212,64.0
57.003548,47.0
57.404953,57.0
57.806328,57.0
58.20769,61.0
58.60904,55.0
59.01036,52.0
59.41165,54.0
59.81294,64.0
60.214203,49.0
60.615433,62.0
61.01666,52.0
61.417862,56.0
61.81903,53.0
62.220192,62.0
62.621338,55.0
63.022446,63.0
63.423546,61.0
63.82463,60.0
64.22569,62.0
64.62672,62.0
65.02773,56.0
65.428734,60.0
65.8297,53.0
66.23065,61.0
66.63159,57.0
67.03249,67.0
67.43339,65.0
67.83426,57.0
68.235115,63.0
68.63593,61.0
69.03674,56.0
69.43753,59.0
69.83829,53.0
70.23903,65.0
70.639755,58.0
71.04045,64.0
71.44113,63.0
71.8418,53.0
72.24243,63.0
72.643036,60.0
73.04364,56.0
73.444214,59.0
73.84476,57.0
74.24529,69.0
74.645805,60.0
75.04628,53.0
75.44675,62.0
75.8472,52.0
76.247604,63.0
76.64801,62.0
77.04839,53.0
77.44875,61.0
77.849075,58.0
78.2494,66.0
78.64969,60.0
79.04995,53.0
79.4502,63.0
79.85043,60.0
80.250626,61.0
80.6508,56.0
81.050964,56.0
81.45111,57.0
81.85121,57.0
82.25131,64.0
82.65138,63.0
83.05142,52.0
83.45145,60.0
83.851456,55.0
84.25143,64.0
84.65139,55.0
85.05133,58.0
85.45125,60.0
85.85113,60.0
86.25099,61.0
86.65085,60.0
87.05066,59.0
87.450455,58.0
87.85024,51.0
88.249985,61.0
88.64972,48.0
89.04943,60.0
89.44913,60.0
89.84877,53.0
90.24841,59.0
90.64804,60.0
91.04762,55.0
91.4472,60.0
91.84675,53.0
92.24626,63.0
92.64577,63.0
93.04524,56.0
93.44469,57.0
93.844124,53.0
94.24354,62.0
94.64293,60.0
95.04228,52.0
95.44162,70.0
95.84094,49.0
96.24022,64.0
96.639496,57.0
97.038734,59.0
97.43794,61.0
97.83715,56.0
98.23633,60.0
98.635475,57.0
99.03459,51.0
99.4337,66.0
99.83278,54.0
100.23182,65.0
100.63086,62.0
101.02987,54.0
101.42884,57.0
101.827805,60.0
102.226746,62.0
102.625656,63.0
103.02453,52.0
103.4234,61.0
103.822235,55.0
104.22104,64.0
104.61983,61.0
105.0186,57.0
105.41733,56.0
105.816055,56.0
106.21475,51.0
106.6134,61.0
107.012054,49.0
107.410675,60.0
107.80927,60.0
108.207825,64.0
108.60638,56.0
109.0049,51.0
109.40339,60.0
109.801865,64.0
110.20031,57.0
110.59872,61.0
110.99712,51.0
111.3955,55.0
111.79385,58.0
112.19216,61.0
112.59046,58.0
112.98874,62.0
113.38697,63.0
113.7852,57.0
114.183395,63.0
114.58156,60.0
114.979706,57.0
115.37784,58.0
115.77594,63.0
116.173996,61.0
116.572044,56.0
116.97007,66.0
117.36805,64.0
117.76602,52.0
118.16397,65.0
118.56188,62.0
118.95978,55.0
119.35765,53.0
119.75548,56.0
120.153305,60.0
120.551094,57.0
120.94887,62.0
121.346596,63.0
121.74431,52.0
122.142,63.0
122.53966,67.0
122.937294,53.0
123.33491,51.0
123.73248,63.0
124.13004,64.0
124.52759,58.0
124.925095,62.0
125.322556,64.0
125.72002,52.0
126.11745,66.0
126.51485,63.0
126.91222,57.0
127.30957,58.0
127.70688,59.0
128.10419,62.0
128.50146,60.0
128.89871,60.0
129.29591,65.0
129.69312,56.0
130.09027,65.0
130.4874,47.0
130.88452,53.0
131.28162,55.0
131.67867,61.0
132.0757,62.0
132.4727,57.0
132.86969,53.0
133.26663,57.0
133.66356,52.0
134.06046,63.0
134.45732,45.0
134.85417,56.0
135.25099,57.0
135.64777,57.0
136.04454,62.0
136.44128,56.0
136.83798,53.0
137.23466,64.0
137.63132,51.0
138.02795,64.0
138.42455,51.0
138.82112,56.0
139.21767,58.0
139.61418,56.0
140.01068,59.0
140.40715,58.0
140.80357,55.0
141.19998,61.0
141.59637,54.0
141.99274,62.0
142.38905,58.0
142.78535,57.0
143.18163,55.0
143.57787,65.0
143.97409,60.0
144.37027,50.0
144.76642,65.0
145.16257,79.0
145.55869,54.0
145.95476,67.0
146.3508,72.0
146.74683,68.0
147.14282,90.0
147.53879,78.0
147.93474,93.0
148.33064,96.0
148.7265,83.0
149.12238,110.0
149.51819,94.0
149.91399,108.0
150.30977,106.0
150.7055,102.0
151.10121,124.0
151.49692,125.0
151.89255,132.0
152.28818,133.0
152.68379,141.0
153.07935,155.0
153.47488,137.0
153.87042,162.0
154.2659,162.0
154.66135,157.0
155.0568,169.0
155.45218,159.0
155.84753,154.0
156.2429,155.0
156.63821,162.0
157.03351,173.0
157.42876,162.0
157.82397,161.0
158.2192,157.0
158.61435,147.0
159.00949,133.0
159.40462,130.0
159.7997,124.0
160.19473,100.0
160.58978,80.0
160.98477,71.0
161.37971,74.0
161.77467,64.0
162.16957,60.0
162.56445,69.0
162.95932,72.0
163.35413,58.0
163.7489,65.0
164.14369,65.0
164.53842,60.0
164.9331,66.0
165.3278,65.0
165.72244,67.0
166.11707,66.0
166.51166,70.0
166.90619,66.0
167.30074,59.0
167.69522,67.0
168.08969,59.0
168.48413,59.0
168.87854,64.0
169.2729,55.0
169.66727,65.0
170.06158,60.0
170.45586,62.0
170.85014,61.0
171.24435,54.0
171.63855,62.0
172.03273,58.0
172.42686,55.0
172.82097,63.0
173.21506,56.0
173.6091,67.0
174.00314,64.0
174.39711,58.0
174.79106,59.0
175.18501,60.0
175.5789,60.0
175.97276,49.0
176.36661,62.0
176.7604,61.0
177.15417,55.0
177.54794,65.0
177.94165,65.0
178.33533,57.0
178.729,59.0
179.12262,60.0
179.5162,60.0
179.90977,58.0
180.3033,61.0
180.6968,58.0
181.09029,59.0
181.4837,65.0
181.8771,64.0
182.27051,55.0
182.66385,60.0
183.05719,56.0
183.45045,65.0
183.8437,49.0
184.23694,61.0
184.63013,63.0
185.02328,59.0
185.41644,67.0
185.80952,62.0
186.20258,61.0
186.59564,68.0
186.98863,57.0
187.38159,68.0
187.77457,66.0
188.16747,63.0
188.56033,69.0
188.95322,62.0
189.34602,70.0
189.7388,71.0
190.13158,63.0
190.52429,80.0
190.91699,65.0
191.30965,73.0
191.70227,66.0
192.0949,67.0
192.48746,76.0
192.87997,75.0
193.27249,74.0
193.66495,73.0
194.05739,71.0
194.44981,84.0
194.84218,66.0
195.23451,79.0
195.62685,77.0
196.01912,73.0
196.41136,82.0
196.8036,75.0
197.19577,84.0
197.58792,82.0
197.98006,70.0
198.37213,91.0
198.76419,77.0
199.15623,90.0
199.54822,81.0
199.94019,81.0
200.3321,95.0
200.724,83.0
201.11588,88.0
201.5077,99.0
201.89949,89.0
202.29129,95.0
202.68301,84.0
203.0747,92.0
203.46638,90.0
203.85802,85.0
204.2496,97.0
204.6412,90.0
205.03273,91.0
205.42422,89.0
205.81572,95.0
206.20715,96.0
206.59856,90.0
206.98996,99.0
207.38129,96.0
207.77258,92.0
208.16388,103.0
208.55511,97.0
208.94635,106.0
209.33752,101.0
209.72865,94.0
210.11978,97.0
210.51086,96.0
210.9019,107.0
211.29294,100.0
211.6839,100.0
212.07484,107.0
212.46579,105.0
212.85666,116.0
213.2475,110.0
213.63834,105.0
214.0291,117.0
214.41985,104.0
214.81058,108.0
215.20125,111.0
215.59189,123.0
215.98251,122.0
216.3731,126.0
216.76366,123.0
217.15417,124.0
217.54465,123.0
217.9351,150.0
218.32552,151.0
218.71588,160.0
219.10626,169.0
219.49655,196.0
219.88683,212.0
220.2771,214.0
220.6673,235.0
221.05746,257.0
221.44763,266.0
221.83774,299.0
222.2278,305.0
222.61786,319.0
223.00786,338.0
223.39783,363.0
223.7878,416.0
224.17769,407.0
224.56755,441.0
224.95741,469.0
225.34721,471.0
225.737,495.0
226.12672,481.0
226.51642,494.0
226.9061,507.0
227.29573,533.0
227.68532,572.0
228.0749,575.0
228.46442,595.0
228.85391,612.0
229.24341,603.0
229.63281,641.0
230.0222,617.0
230.41159,653.0
230.8009,683.0
231.19019,723.0
231.57945,805.0
231.96867,783.0
232.35785,779.0
232.74701,700.0
233.13612,635.0
233.52522,580.0
233.91428,516.0
234.30327,460.0
234.69226,324.0
235.0812,261.0
235.47011,205.0
235.859,190.0
236.24782,179.0
236.63661,184.0
237.0254,153.0
237.41412,173.0
237.80283,163.0
238.1915,170.0
238.58012,162.0
238.96872,165.0
239.3573,175.0
239.7458,159.0
240.13428,162.0
240.52275,170.0
240.91116,157.0
241.29953,168.0
241.68791,161.0
242.07622,159.0
242.46451,157.0
242.85274,163.0
243.24094,181.0
243.62912,159.0
244.01726,158.0
244.40535,161.0
244.79343,157.0
245.18146,168.0
245.56943,165.0
245.95741,163.0
246.34532,168.0
246.7332,156.0
247.12106,181.0
247.50888,161.0
247.89665,170.0
248.28441,181.0
248.6721,163.0
249.05977,180.0
249.44743,178.0
249.83502,168.0
250.22258,181.0
250.61012,186.0
250.9976,191.0
251.38509,167.0
251.77249,180.0
252.15988,180.0
252.54724,177.0
252.93454,175.0
253.32181,176.0
253.70908,175.0
254.09627,181.0
254.48343,178.0
254.87059,191.0
255.25766,172.0
255.64471,182.0
256.03177,186.0
256.41873,174.0
256.80566,180.0
257.19263,187.0
257.5795,188.0
257.9663,180.0
258.35315,181.0
258.7399,195.0
259.12665,175.0
259.51334,191.0
259.9,191.0
260.28662,181.0
260.67322,189.0
261.05975,189.0
261.4463,192.0
261.83276,198.0
262.21918,191.0
262.6056,205.0
262.99194,190.0
263.37827,198.0
263.7646,204.0
264.15085,198.0
264.53705,197.0
264.92325,207.0
265.3094,201.0
265.6955,197.0
266.08157,195.0
266.4676,210.0
266.85358,198.0
267.23956,208.0
267.6255,203.0
268.01138,197.0
268.39722,207.0
268.78302,201.0
269.16882,204.0
269.55457,205.0
269.94025,205.0
270.32593,212.0
270.71155,196.0
271.0971,218.0
271.4827,198.0
271.8682,200.0
272.25366,210.0
272.63913,206.0
273.0245,213.0
273.40985,206.0
273.79523,207.0
274.18048,214.0
274.56573,205.0
274.95096,220.0
275.33612,214.0
275.7213,211.0
276.10638,224.0
276.49146,214.0
276.8765,219.0
277.26147,210.0
277.64642,215.0
278.03134,231.0
278.4162,201.0
278.80103,228.0
279.18585,219.0
279.57062,214.0
279.95532,216.0
280.34003,209.0
280.72467,218.0
281.10925,213.0
281.49387,209.0
281.8784,232.0
282.26288,213.0
282.64734,224.0
283.03177,221.0
283.41614,215.0
283.80048,220.0
284.18478,217.0
284.5691,223.0
284.9533,222.0
285.33746,206.0
285.72165,229.0
286.10574,214.0
286.4898,227.0
286.87387,222.0
287.25787,214.0
287.6418,227.0
288.02576,219.0
288.40964,210.0
288.7935,219.0
289.1773,218.0
289.56107,227.0
289.94476,218.0
290.3285,229.0
290.71213,219.0
291.09573,221.0
291.47934,229.0
291.86285,226.0
292.24637,215.0
292.62982,221.0
293.01324,225.0
293.39667,231.0
293.78,218.0
294.16327,227.0
294.54657,228.0
294.92978,208.0
295.31296,224.0
295.69614,221.0
296.07922,226.0
296.4623,219.0
296.84537,221.0
297.22833,230.0
297.6113,211.0
297.99423,222.0
298.37708,227.0
298.75992,218.0
299.14273,231.0
299.52548,219.0
299.9082,218.0
300.2909,219.0
300.67352,218.0
301.05615,229.0
301.43872,215.0
301.82123,232.0
302.20374,227.0
302.58618,217.0
302.96857,227.0
303.35095,214.0
303.73328,222.0
304.11554,220.0
304.49783,219.0
304.88004,228.0
305.26218,222.0
305.64435,223.0
306.02643,226.0
306.40845,217.0
306.7905,226.0
307.17245,224.0
307.55438,220.0
307.93628,219.0
308.31815,221.0
308.69995,223.0
309.08173,218.0
309.46347,225.0
309.84518,220.0
310.22684,217.0
310.60843,218.0
310.99002,209.0
311.37155,221.0
311.75305,206.0
312.13452,222.0
312.51593,216.0
312.89728,217.0
313.27866,219.0
313.65994,221.0
314.0412,210.0
314.42242,215.0
314.8036,208.0
315.18472,222.0
315.56583,205.0
315.94687,215.0
316.32788,222.0
316.7089,214.0
317.0898,219.0
317.47073,214.0
317.85156,209.0
318.2324,208.0
318.6132,212.0
318.9939,222.0
319.37457,201.0
319.75525,216.0
320.13586,221.0
320.51642,205.0
320.89697,218.0
321.27747,215.0
321.6579,205.0
322.03836,206.0
322.4187,204.0
322.79904,208.0
323.17935,205.0
323.55957,209.0
323.9398,211.0
324.31998,201.0
324.70007,212.0
325.08017,212.0
325.46024,202.0
325.84024,213.0
326.2202,198.0
326.60013,203.0
326.98,205.0
327.35986,202.0
327.73965,210.0
328.11942,199.0
328.49918,212.0
328.87885,204.0
329.25848,187.0
329.6381,204.0
330.01764,199.0
330.39716,209.0
330.77664,209.0
331.15607,201.0
331.53546,216.0
331.91483,209.0
332.29413,211.0
332.6734,215.0
333.05264,189.0
333.43182,210.0
333.81097,206.0
334.1901,215.0
334.56915,210.0
334.94818,207.0
335.32715,224.0
335.7061,195.0
336.08502,211.0
336.46387,223.0
336.84268,211.0
337.22147,220.0
337.60022,217.0
337.97888,225.0
338.35754,225.0
338.73618,224.0
339.11472,242.0
339.4933,233.0
339.87177,231.0
340.25018,242.0
340.6286,231.0
341.00696,247.0
341.38528,255.0
341.76358,253.0
342.1418,255.0
342.52002,253.0
342.89816,281.0
343.27628,270.0
343.65436,281.0
344.0324,288.0
344.41037,281.0
344.78833,291.0
345.16623,297.0
345.5441,309.0
345.92194,315.0
346.2997,321.0
346.67743,349.0
347.05515,341.0
347.4328,354.0
347.81042,365.0
348.188,365.0
348.56552,390.0
348.943,384.0
349.32047,388.0
349.69788,411.0
350.0752,417.0
350.45255,433.0
350.82983,425.0
351.2071,441.0
351.58426,455.0
351.9614,451.0
352.33853,469.0
352.71558,481.0
353.09262,491.0
353.4696,492.0
353.84656,484.0
354.22345,507.0
354.6003,498.0
354.9771,507.0
355.35388,516.0
355.73065,512.0
356.1073,518.0
356.48395,526.0
356.86057,531.0
357.23712,526.0
357.61365,522.0
357.99014,523.0
358.36655,507.0
358.74298,509.0
359.11932,510.0
359.4956,505.0
359.8719,503.0
360.2481,497.0
360.62427,498.0
361.00043,482.0
361.37653,482.0
361.75256,482.0
362.1286,461.0
362.50455,463.0
362.88046,437.0
363.25635,446.0
363.6322,443.0
364.008,438.0
364.38376,432.0
364.75946,431.0
365.1351,422.0
365.51074,426.0
365.88632,413.0
366.26187,422.0
366.6374,404.0
367.01282,397.0
367.38824,402.0
367.7636,399.0
368.13892,406.0
368.51422,398.0
368.88947,403.0
369.26465,399.0
369.63983,383.0
370.01492,402.0
370.38998,389.0
370.76505,381.0
371.14,379.0
371.51495,372.0
371.88986,379.0
372.2647,368.0
372.6395,365.0
373.01428,369.0
373.389,340.0
373.76367,362.0
374.13834,337.0
374.5129,330.0
374.88745,338.0
375.262,327.0
375.63644,335.0
376.0109,308.0
376.38525,310.0
376.75958,325.0
377.1339,296.0
377.50815,317.0
377.88232,310.0
378.25653,302.0
378.6306,306.0
379.0047,304.0
379.37875,306.0
379.75272,312.0
380.12665,299.0
380.50058,312.0
380.87442,291.0
381.24823,308.0
381.622,304.0
381.99576,284.0
382.36942,290.0
382.74307,279.0
383.11667,285.0
383.49023,287.0
383.86374,284.0
384.2372,296.0
384.61066,285.0
384.984,290.0
385.35733,291.0
385.73065,271.0
386.10388,279.0
386.47708,281.0
386.85028,265.0
387.2234,260.0
387.59644,263.0
387.96948,271.0
388.34247,266.0
388.7154,277.0
389.08832,263.0
389.46118,245.0
389.83398,271.0
390.20676,259.0
390.57947,261.0
390.95215,249.0
391.3248,243.0
391.6974,257.0
392.06995,245.0
392.44244,258.0
392.81488,258.0
393.18732,244.0
393.5597,260.0
393.932,248.0
394.30432,241.0
394.67654,243.0
395.04874,252.0
395.4209,253.0
395.793,243.0
396.16504,235.0
396.53708,245.0
396.90906,233.0
397.28098,240.0
397.6529,237.0
398.02472,239.0
398.3965,240.0
398.76828,235.0
399.13998,240.0
399.51166,235.0
399.88327,242.0
400.25485,241.0
400.6264,233.0
400.99786,237.0
401.36932,226.0
401.74072,234.0
402.1121,232.0
402.4834,233.0
402.85468,240.0
403.2259,235.0
403.59705,240.0
403.9682,230.0
404.3393,222.0
404.71033,237.0
405.08133,222.0
405.45227,229.0
405.82318,235.0
406.1941,234.0
406.56488,237.0
406.93567,234.0
407.3064,238.0
407.6771,235.0
408.04776,235.0
408.41833,240.0
408.78888,236.0
409.15942,238.0
409.52988,234.0
409.9003,238.0
410.2707,243.0
410.641,238.0
411.0113,244.0
411.38153,242.0
411.75174,233.0
412.1219,245.0
412.492,242.0
412.86206,242.0
413.23206,232.0
413.60205,240.0
413.972,249.0
414.34186,233.0
414.7117,252.0
415.08148,249.0
415.45123,232.0
415.82095,229.0
416.1906,242.0
416.56024,250.0
416.9298,246.0
417.29932,251.0
417.66882,258.0
418.03824,244.0
418.40762,255.0
418.777,253.0
419.1463,241.0
419.51553,264.0
419.88477,237.0
420.2539,256.0
420.62302,250.0
420.99213,260.0
421.36115,265.0
421.7301,261.0
422.09906,267.0
422.46796,241.0
422.8368,241.0
423.20563,264.0
423.57437,263.0
423.9431,261.0
424.31177,263.0
424.6804,253.0
425.04898,263.0
425.4175,257.0
425.78598,256.0
426.15445,273.0
426.52283,247.0
426.89117,258.0
427.25946,260.0
427.62778,261.0
427.996,258.0
428.36414,255.0
428.73227,267.0
429.10034,247.0
429.46835,261.0
429.8364,251.0
430.20435,243.0
430.5722,244.0
430.94006,241.0
431.30786,245.0
431.6756,244.0
432.0434,231.0
432.41104,239.0
432.77866,238.0
433.14624,230.0
433.51376,238.0
433.88123,233.0
434.24872,236.0
434.61612,236.0
434.98346,242.0
435.35077,245.0
435.71802,229.0
436.08527,265.0
436.45245,235.0
436.81955,258.0
437.1866,243.0
437.55365,242.0
437.92062,249.0
438.28763,242.0
438.6545,245.0
439.02133,244.0
439.38812,242.0
439.75488,261.0
440.12158,235.0
440.4883,258.0
440.85492,257.0
441.2215,234.0
441.588,253.0
441.9545,252.0
442.32092,241.0
442.68738,250.0
443.0537,241.0
443.41998,249.0
443.78625,241.0
444.15244,248.0
444.51865,244.0
444.88477,236.0
445.25082,247.0
445.61685,237.0
445.98282,254.0
446.34872,235.0
446.7147,236.0
447.0805,244.0
447.4463,227.0
447.81204,240.0
448.17773,241.0
448.5434,229.0
448.90906,228.0
449.2746,240.0
449.6401,236.0
450.00558,238.0
450.371,231.0
450.7364,245.0
451.10175,235.0
451.46704,249.0
451.83228,243.0
452.19745,238.0
452.56262,238.0
452.92776,241.0
453.29282,249.0
453.65784,247.0
454.02277,236.0
454.3877,251.0
454.75256,235.0
455.11743,246.0
455.4822,242.0
455.84695,242.0
456.2116,241.0
456.57626,248.0
456.94086,242.0
457.30545,239.0
457.66995,243.0
458.0344,246.0
458.3988,249.0
458.76315,244.0
459.12747,231.0
459.4918,240.0
459.85602,245.0
460.22018,251.0
460.58432,244.0
460.9484,242.0
461.3125,253.0
461.67648,239.0
462.04044,235.0
462.40433,267.0
462.76816,244.0
463.13196,238.0
463.4958,243.0
463.8595,241.0
464.22314,242.0
464.58676,237.0
464.95035,237.0
465.31387,255.0
465.6774,224.0
466.04083,258.0
466.40424,252.0
466.76755,233.0
467.13086,243.0
467.49417,236.0
467.85736,235.0
468.22052,220.0
468.58362,223.0
468.94666,251.0
469.3097,223.0
469.6727,249.0
470.03564,251.0
470.3985,241.0
470.76132,253.0
471.1241,247.0
471.48685,253.0
471.84958,255.0
472.21222,247.0
472.57483,259.0
472.93738,261.0
473.29987,270.0
473.66232,268.0
474.02478,264.0
474.38715,280.0
474.74945,265.0
475.11172,275.0
475.47394,279.0
475.83618,277.0
476.1983,295.0
476.5604,280.0
476.92242,302.0
477.28442,294.0
477.64636,286.0
478.0083,291.0
478.37015,301.0
478.73193,288.0
479.0937,292.0
479.4554,298.0
479.81708,311.0
480.17874,293.0
480.5403,305.0
480.90182,301.0
481.2633,283.0
481.62473,299.0
481.9861,308.0
482.3475,306.0
482.70877,305.0
483.07,321.0
483.4312,337.0
483.79236,327.0
484.1535,350.0
484.51456,365.0
484.87558,359.0
485.2365,381.0
485.59744,372.0
485.9583,387.0
486.31918,400.0
486.67993,415.0
487.04065,441.0
487.40134,431.0
487.76196,438.0
488.12256,480.0
488.48315,478.0
488.84363,510.0
489.20407,510.0
489.56448,527.0
489.9248,544.0
490.28513,556.0
490.64545,596.0
491.00565,588.0
491.36578,619.0
491.7259,635.0
492.08597,642.0
492.44604,695.0
492.80603,700.0
493.16595,733.0
493.52582,801.0
493.88565,840.0
494.24542,926.0
494.60522,970.0
494.96494,1030.0
495.32455,1097.0
495.68414,1113.0
496.0437,1203.0
496.4032,1247.0
496.76273,1290.0
497.12213,1400.0
497.48148,1492.0
497.8408,1648.0
498.20007,1709.0
498.55927,1771.0
498.91852,1865.0
499.27765,1881.0
499.63672,1935.0
499.99573,1946.0
500.35474,1941.0
500.7137,1921.0
501.0726,1917.0
501.43146,1877.0
501.79022,1832.0
502.149,1799.0
502.5077,1735.0
502.8664,1701.0
503.225,1670.0
503.58356,1658.0
503.94208,1645.0
504.30054,1629.0
504.65894,1641.0
505.01736,1645.0
505.3757,1652.0
505.73398,1675.0
506.0922,1728.0
506.45038,1744.0
506.80856,1856.0
507.16666,1883.0
507.5247,1945.0
507.8827,2060.0
508.24063,2119.0
508.5985,2288.0
508.95642,2354.0
509.31424,2467.0
509.672,2613.0
510.0297,2692.0
510.38736,2815.0
510.74496,2795.0
511.1026,2785.0
511.4601,2649.0
511.81757,2584.0
512.175,2451.0
512.53235,2347.0
512.8897,2299.0
513.2471,2166.0
513.60425,2045.0
513.9615,1785.0
514.3186,1598.0
514.6757,1489.0
515.0328,1339.0
515.3898,1307.0
515.74677,1272.0
516.10364,1228.0
516.4605,1218.0
516.8173,1183.0
517.17413,1123.0
517.5308,1091.0
517.8875,1076.0
518.24414,1047.0
518.6007,999.0
518.9572,968.0
519.3138,950.0
519.67017,906.0
520.02655,904.0
520.3829,890.0
520.7392,851.0
521.0954,828.0
521.45166,812.0
521.8078,790.0
522.16394,750.0
522.51996,735.0
522.876,708.0
523.232,679.0
523.5879,663.0
523.9437,641.0
524.29956,619.0
524.65533,606.0
525.01105,582.0
525.36676,568.0
525.7224,556.0
526.07794,536.0
526.4335,539.0
526.78894,510.0
527.1444,509.0
527.4998,493.0
527.85516,481.0
528.21045,482.0
528.5657,473.0
528.9209,463.0
529.27606,443.0
529.6312,447.0
529.98627,439.0
530.34125,417.0
530.6962,428.0
531.05115,410.0
531.40607,397.0
531.76086,393.0
532.1156,383.0
532.47034,373.0
532.825,368.0
533.1796,361.0
533.5343,354.0
533.8888,337.0
534.2433,344.0
534.5977,324.0
534.9521,312.0
535.30646,306.0
535.66077,306.0
536.015,309.0
536.36926,297.0
536.7234,294.0
537.0775,296.0
537.4315,280.0
537.7856,291.0
538.1395,284.0
538.49347,272.0
538.84735,266.0
539.2012,275.0
539.555,272.0
539.9087,263.0
540.2624,272.0
540.61597,277.0
540.96954,266.0
541.3231,268.0
541.67664,268.0
542.0301,253.0
542.3835,259.0
542.7368,259.0
543.0901,263.0
543.44336,266.0
543.79663,264.0
544.1497,267.0
544.50287,261.0
544.8559,274.0
545.2089,252.0
545.56195,253.0
545.91486,249.0
546.2677,247.0
546.6205,236.0
546.97327,235.0
547.326,237.0
547.6787,249.0
548.0314,227.0
548.3839,243.0
548.73645,227.0
549.0889,228.0
549.4414,224.0
549.7938,215.0
550.1462,225.0
550.4985,221.0
550.8507,215.0
551.2029,204.0
551.55505,209.0
551.9072,226.0
552.2593,222.0
552.61127,218.0
552.96326,226.0
553.3151,222.0
553.66705,226.0
554.01886,227.0
554.37067,225.0
554.72235,245.0
555.07404,217.0
555.42566,246.0
555.7773,242.0
556.12885,229.0
556.48035,235.0
556.8318,229.0
557.18317,236.0
557.5345,222.0
557.88586,221.0
558.23706,237.0
558.58826,214.0
558.93945,235.0
559.2905,237.0
559.6416,224.0
559.9927,229.0
560.3436,221.0
560.6945,222.0
561.04535,227.0
561.3962,213.0
561.747,235.0
562.0977,222.0
562.4484,229.0
562.799,227.0
563.1496,217.0
563.5001,233.0
563.8507,209.0
564.2011,224.0
564.5515,234.0
564.90186,224.0
565.25214,236.0
565.60236,230.0
565.95264,240.0
566.3028,236.0
566.6529,238.0
567.0029,244.0
567.35297,247.0
567.7029,231.0
568.05286,237.0
568.4027,235.0
568.75256,241.0
569.1023,228.0
569.452,231.0
569.80176,234.0
570.15137,215.0
570.501,237.0
570.8505,225.0
571.2,231.0
571.54944,231.0
571.89886,228.0
572.2482,239.0
572.5975,218.0
572.9468,238.0
573.29596,239.0
573.6451,232.0
573.99426,249.0
574.3433,247.0
574.6923,244.0
575.04126,239.0
575.3902,251.0
575.739,255.0
576.0879,235.0
576.43665,251.0
576.7854,258.0
577.13403,238.0
577.48267,257.0
577.83136,251.0
578.17993,255.0
578.5284,245.0
578.87683,254.0
579.2252,265.0
579.57355,260.0
579.9218,256.0
580.2701,256.0
580.6183,235.0
580.96643,234.0
581.3145,229.0
581.6626,226.0
582.01074,218.0
582.35864,223.0
582.7066,222.0
583.05444,211.0
583.4023,224.0
583.75,218.0
584.0978,214.0
584.44543,237.0
584.793,224.0
585.1406,239.0
585.48816,251.0
585.83575,253.0
586.1832,259.0
586.5306,256.0
586.8779,261.0
587.2252,263.0
587.5725,246.0
587.9197,269.0
588.26685,261.0
588.61395,268.0
588.961,257.0
589.308,268.0
589.65497,273.0
590.002,269.0
590.3489,269.0
590.6957,269.0
591.0425,268.0
591.38916,280.0
591.73584,280.0
592.08246,288.0
592.4291,288.0
592.7756,307.0
593.1221,337.0
593.4685,326.0
593.81506,355.0
594.1614,407.0
594.5077,437.0
594.85394,512.0
595.20013,521.0
595.54626,555.0
595.8924,554.0
596.23846,548.0
596.5845,558.0
596.9304,544.0
597.27637,547.0
597.6222,523.0
597.96814,496.0
598.3139,484.0
598.65967,433.0
599.0054,423.0
599.35095,403.0
599.69653,417.0
600.0421,470.0
600.3876,483.0
600.73303,519.0
601.0784,548.0
601.42377,550.0
601.76917,572.0
602.11444,557.0
602.45966,579.0
602.8048,571.0
603.1499,568.0
603.495,577.0
603.84,557.0
604.185,549.0
604.5299,506.0
604.87476,456.0
605.2196,431.0
605.5644,406.0
605.90924,404.0
606.2539,403.0
606.5986,403.0
606.9432,410.0
607.2877,397.0
607.6322,402.0
607.9766,408.0
608.32104,394.0
608.6654,394.0
609.0097,389.0
609.35394,396.0
609.6983,396.0
610.0425,396.0
610.3866,426.0
610.73065,423.0
611.0747,417.0
611.41864,436.0
611.7626,440.0
612.10645,457.0
612.4503,456.0
612.79407,457.0
613.1378,468.0
613.4815,459.0
613.8253,493.0
614.1689,483.0
614.51245,491.0
614.85596,495.0
615.1994,496.0
615.54285,501.0
615.88617,499.0
616.2295,501.0
616.57275,490.0
616.916,491.0
617.25916,495.0
617.6024,487.0
617.9455,487.0
618.2885,465.0
618.63153,462.0
618.9745,462.0
619.3174,451.0
619.6602,450.0
620.003,452.0
620.34576,444.0
620.6885,449.0
621.0311,440.0
621.37384,452.0
621.71643,455.0
622.0589,454.0
622.40137,475.0
622.74384,471.0
623.0862,493.0
623.4285,511.0
623.7708,507.0
624.11304,539.0
624.4552,534.0
624.79736,548.0
625.13947,560.0
625.4816,543.0
625.8236,541.0
626.1656,544.0
626.50745,543.0
626.8493,516.0
627.19116,511.0
627.5329,491.0
627.87463,480.0
628.2163,477.0
628.5579,439.0
628.8995,431.0
629.24115,412.0
629.58264,404.0
629.9241,389.0
630.26544,385.0
630.6068,377.0
630.94806,381.0
631.2893,364.0
631.63055,373.0
631.9717,354.0
632.3128,364.0
632.6539,364.0
632.9949,371.0
633.33594,367.0
633.6769,368.0
634.01776,367.0
634.3586,386.0
634.69934,364.0
635.0401,386.0
635.3808,378.0
635.72144,385.0
636.062,394.0
636.4026,389.0
636.74304,400.0
637.0836,399.0
637.424,398.0
637.7644,406.0
638.10474,405.0
638.44495,417.0
638.7852,423.0
639.12537,431.0
639.4655,440.0
639.80554,445.0
640.1456,450.0
640.4856,460.0
640.82556,465.0
641.1655,494.0
641.5054,466.0
641.8452,497.0
642.18494,494.0
642.52466,487.0
642.8643,485.0
643.2039,464.0
643.54346,461.0
643.883,438.0
644.2225,432.0
644.5619,422.0
644.9014,403.0
645.2407,401.0
645.58,395.0
645.91925,385.0
646.2585,383.0
646.5976,373.0
646.9367,377.0
647.27576,374.0
647.6148,359.0
647.95374,387.0
648.29266,369.0
648.63153,380.0
648.97046,377.0
649.30927,362.0
649.64795,375.0
649.98663,355.0
650.3253,364.0
650.6639,366.0
651.00244,361.0
651.34094,375.0
651.6794,351.0
652.01776,359.0
652.35614,355.0
652.6946,353.0
653.03284,338.0
653.3711,339.0
653.7092,330.0
654.04736,327.0
654.38544,335.0
654.7235,342.0
655.06146,330.0
655.3994,343.0
655.7373,347.0
656.07513,349.0
656.41296,376.0
656.75085,386.0
657.08856,385.0
657.4262,391.0
657.76385,403.0
658.1014,419.0
658.4389,418.0
658.7764,423.0
659.11383,435.0
659.45123,434.0
659.7886,447.0
660.12585,444.0
660.46326,441.0
660.8004,437.0
661.13763,432.0
661.47473,437.0
661.81177,423.0
662.1488,422.0
662.4858,417.0
662.8227,407.0
663.1596,418.0
663.4964,400.0
663.8332,393.0
664.1699,381.0
664.5068,371.0
664.84344,377.0
665.18005,359.0
665.5166,364.0
665.8531,337.0
666.1896,319.0
666.526,326.0
666.86237,327.0
667.19867,325.0
667.535,331.0
667.8712,331.0
668.2075,340.0
668.5437,346.0
668.87976,356.0
669.2158,351.0
669.5518,346.0
669.8878,349.0
670.2237,336.0
670.5596,348.0
670.89545,350.0
671.2312,345.0
671.56696,340.0
671.90265,340.0
672.2384,346.0
672.574,347.0
672.90955,344.0
673.24506,362.0
673.5805,352.0
673.9159,365.0
674.2513,361.0
674.5866,357.0
674.9219,373.0
675.25714,364.0
675.5923,376.0
675.92755,373.0
676.2627,377.0
676.5977,380.0
676.93274,383.0
677.2677,381.0
677.6026,355.0
677.93744,373.0
678.2723,377.0
678.60706,371.0
678.9418,383.0
679.2765,363.0
679.6111,358.0
679.9458,378.0
680.2804,368.0
680.61487,389.0
680.94934,385.0
681.28375,383.0
681.6181,395.0
681.95245,379.0
682.28674,393.0
682.621,397.0
682.95514,404.0
683.2893,420.0
683.6235,411.0
683.9576,436.0
684.29156,444.0
684.6255,445.0
684.9594,467.0
685.2933,461.0
685.62714,480.0
685.9609,498.0
686.2946,490.0
686.6283,528.0
686.962,527.0
687.2956,545.0
687.6293,561.0
687.96277,564.0
688.2962,611.0
688.62964,605.0
688.963,636.0
689.2963,681.0
689.62964,668.0
689.9628,734.0
690.296,749.0
690.6292,765.0
690.9623,828.0
691.2955,853.0
691.6285,956.0
691.9614,992.0
692.2944,1072.0
692.62726,1254.0
692.9601,1341.0
693.29285,1610.0
693.6256,1728.0
693.9583,1863.0
694.29095,2096.0
694.6236,2161.0
694.95624,2264.0
695.28876,2294.0
695.6213,2306.0
695.9537,2297.0
696.2861,2300.0
696.6184,2277.0
696.9507,2244.0
697.28296,2216.0
697.6152,2080.0
697.9473,1984.0
698.2794,1786.0
698.6115,1668.0
698.94366,1569.0
699.27563,1407.0
699.60754,1330.0
699.93945,1244.0
700.2713,1193.0
700.6031,1160.0
700.9349,1109.0
701.2666,1085.0
701.59827,1061.0
701.9299,1036.0
702.2615,1020.0
702.59314,979.0
702.9246,968.0
703.25604,943.0
703.58746,927.0
703.9188,910.0
704.2501,900.0
704.5814,889.0
704.9126,868.0
705.2438,842.0
705.57495,850.0
705.906,828.0
706.23706,810.0
706.5682,810.0
706.8992,786.0
707.23004,785.0
707.5609,761.0
707.8918,737.0
708.22253,708.0
708.5533,685.0
708.884,680.0
709.2146,649.0
709.5452,634.0
709.8758,611.0
710.2064,596.0
710.53687,598.0
710.8673,579.0
711.1977,556.0
711.528,549.0
711.85834,539.0
712.1886,543.0
712.5188,520.0
712.84894,511.0
713.1791,501.0
713.50916,508.0
713.8392,497.0
714.1693,493.0
714.4992,488.0
714.8291,478.0
715.159,458.0
715.4888,459.0
715.81854,431.0
716.1483,435.0
716.47797,438.0
716.8076,439.0
717.1372,445.0
717.46674,445.0
717.7964,438.0
718.1258,447.0
718.45526,439.0
718.7846,443.0
719.11395,427.0
719.44324,448.0
719.77246,443.0
720.1017,443.0
720.43085,445.0
720.75995,445.0
721.089,452.0
721.418,464.0
721.74713,447.0
722.07605,473.0
722.40497,461.0
722.73376,464.0
723.0626,476.0
723.39136,467.0
723.7201,471.0
724.04877,475.0
724.3774,480.0
724.706,499.0
725.03455,471.0
725.36316,504.0
725.6916,483.0
726.02,483.0
726.3484,493.0
726.6767,481.0
727.005,493.0
727.33325,485.0
727.66144,481.0
727.98956,501.0
728.3177,479.0
728.64575,501.0
728.97375,501.0
729.3019,496.0
729.6298,490.0
729.9577,492.0
730.2856,497.0
730.61334,511.0
730.94116,487.0
731.26886,515.0
731.59656,509.0
731.9242,519.0
732.2518,525.0
732.5793,517.0
732.9069,526.0
733.2344,522.0
733.5618,513.0
733.8892,528.0
734.21655,517.0
734.5438,535.0
734.8711,534.0
735.19824,530.0
735.52545,531.0
735.85254,527.0
736.1796,539.0
736.50665,527.0
736.83374,523.0
737.1607,525.0
737.4876,528.0
737.8145,544.0
738.1413,527.0
738.4681,532.0
738.7948,534.0
739.1215,533.0
739.4482,539.0
739.7748,523.0
740.1013,532.0
740.428,534.0
740.75446,521.0
741.0809,533.0
741.4073,521.0
741.73364,525.0
742.05994,523.0
742.3862,527.0
742.7124,534.0
743.03864,514.0
743.36475,526.0
743.69086,523.0
744.0169,511.0
744.343,528.0
744.669,518.0
744.99493,512.0
745.3208,509.0
745.64667,509.0
745.9724,523.0
746.2982,499.0
746.6239,512.0
746.9496,504.0
747.2752,503.0
747.6008,512.0
747.92645,496.0
748.25195,523.0
748.57745,509.0
748.90283,499.0
749.2282,508.0
749.5535,496.0
749.87885,511.0
750.2041,507.0
750.5293,501.0
750.8545,510.0
751.17957,515.0
751.5047,527.0
751.82983,536.0
752.15485,531.0
752.4798,560.0
752.8047,566.0
753.1296,569.0
753.4544,580.0
753.77924,600.0
754.10394,607.0
754.42865,600.0
754.7533,617.0
755.07794,615.0
755.40265,608.0
755.7272,611.0
756.0517,601.0
756.37616,593.0
756.70056,575.0
757.0249,571.0
757.34924,564.0
757.6735,552.0
757.9978,552.0
758.32196,534.0
758.6462,513.0
758.9703,503.0
759.2945,489.0
759.6185,486.0
759.9425,449.0
760.2665,459.0
760.5904,447.0
760.91425,433.0
761.2381,436.0
761.5619,417.0
761.8856,413.0
762.20935,410.0
762.533,409.0
762.85675,415.0
763.1803,408.0
763.50385,407.0
763.8274,413.0
764.1508,403.0
764.47424,413.0
764.7976,405.0
765.121,395.0
765.4443,403.0
765.7675,387.0
766.0907,392.0
766.414,383.0
766.7372,390.0
767.06024,395.0
767.3833,375.0
767.7063,392.0
768.02924,383.0
768.3522,381.0
768.67505,394.0
768.9979,384.0
769.32074,399.0
769.6435,384.0
769.9662,391.0
770.289,401.0
770.61163,386.0
770.93427,400.0
771.2568,397.0
771.57935,385.0
771.9018,396.0
772.22424,395.0
772.54663,403.0
772.869,394.0
773.1913,395.0
773.51355,403.0
773.83594,384.0
774.15814,397.0
774.4803,394.0
774.80237,382.0
775.12445,392.0
775.4465,399.0
775.7685,391.0
776.09045,396.0
776.41235,386.0
776.7342,404.0
777.056,395.0
777.3778,389.0
777.6997,392.0
778.02136,391.0
778.3431,398.0
778.6647,399.0
778.98627,399.0
779.3078,397.0
779.62933,399.0
779.9508,408.0
780.2722,397.0
780.5936,398.0
780.915,396.0
781.2364,394.0
781.5577,397.0
781.87885,395.0
782.2001,390.0
782.5212,399.0
782.8423,403.0
783.1634,412.0
783.4844,397.0
783.80536,406.0
784.12634,407.0
784.44727,397.0
784.7681,413.0
785.08905,403.0
785.40985,397.0
785.7306,398.0
786.0513,406.0
786.37195,409.0
786.69257,388.0
787.0132,401.0
787.33374,399.0
787.65424,384.0
787.9747,399.0
788.2951,406.0
788.61566,414.0
788.936,414.0
789.2563,411.0
789.5766,419.0
789.8968,404.0
790.217,414.0
790.5372,419.0
790.85724,407.0
791.17737,402.0
791.4974,405.0
791.8174,398.0
792.1373,404.0
792.45734,391.0
792.7772,411.0
793.0971,384.0
793.4169,410.0
793.73663,398.0
794.05634,393.0
794.37604,393.0
794.6957,414.0
795.01526,407.0
795.33484,400.0
795.65436,408.0
795.974,410.0
796.29346,390.0
796.61285,412.0
796.9322,393.0
797.2515,390.0
797.5708,386.0
797.8901,393.0
798.2093,391.0
798.52844,388.0
798.8476,405.0
799.1667,403.0
799.4858,392.0
799.80493,406.0
800.1239,386.0
800.4428,385.0
800.7617,396.0
801.08057,393.0
801.3994,399.0
801.7182,392.0
802.037,390.0
802.35565,406.0
802.6743,374.0
802.993,395.0
803.3117,383.0
803.63025,386.0
803.9488,391.0
804.2673,392.0
804.5857,386.0
804.9041,386.0
805.2225,385.0
805.5408,407.0
805.8591,371.0
806.1773,402.0
806.49554,397.0
806.8137,389.0
807.13196,401.0
807.4501,398.0
807.7681,394.0
808.0861,391.0
808.4041,393.0
808.72205,413.0
809.04,390.0
809.35785,409.0
809.67566,404.0
809.99347,395.0
810.3112,407.0
810.629,408.0
810.9467,416.0
811.2644,419.0
811.582,410.0
811.89954,427.0
812.21704,410.0
812.53455,427.0
812.852,422.0
813.16943,409.0
813.4868,426.0
813.80414,424.0
814.12146,420.0
814.43884,423.0
814.75604,427.0
815.07324,439.0
815.3904,436.0
815.7075,443.0
816.0246,462.0
816.3416,443.0
816.6586,459.0
816.9756,465.0
817.2925,447.0
817.6094,456.0
817.9264,464.0
818.24316,476.0
818.55994,458.0
818.8767,471.0
819.1934,474.0
819.5101,454.0
819.8267,464.0
820.1433,454.0
820.45984,451.0
820.77637,444.0
821.09283,434.0
821.4093,439.0
821.7258,425.0
822.0422,432.0
822.3585,426.0
822.6748,427.0
822.9911,429.0
823.30725,417.0
823.6235,421.0
823.93964,425.0
824.25574,416.0
824.5718,431.0
824.8878,424.0
825.204,426.0
825.5199,421.0
825.8358,415.0
826.15173,429.0
826.4676,416.0
826.7834,420.0
827.0992,395.0
827.4149,375.0
827.7306,58.0
828.04626,57.0
828.36194,50.0
828.67755,53.0
828.9932,62.0
829.3087,60.0
829.6242,515.0
829.9397,318.0
830.25507,58.0
830.5705,59.0
830.8858,62.0
831.2011,56.0
831.5164,58.0
831.8316,65.0
832.14685,55.0
832.4621,55.0
832.7772,57.0
833.0923,60.0
833.40735,50.0
833.7224,65.0
834.03735,63.0
834.3523,59.0
834.66724,65.0
834.9821,64.0
835.29694,58.0
835.61176,60.0
835.92664,60.0
836.24133,62.0
836.556,49.0
836.8707,67.0
837.1853,66.0
837.49994,51.0
837.81445,62.0
838.12897,59.0
838.4435,55.0
838.7579,60.0
839.0723,55.0
839.38666,73.0
839.7012,57.0
840.01544,54.0
840.3297,67.0
840.6439,52.0
840.9581,64.0
841.2723,63.0
841.5864,57.0
841.9005,62.0
842.2146,59.0
842.52856,62.0
842.8426,57.0
843.1566,59.0
843.4706,67.0
843.7844,52.0
844.09827,63.0
844.4121,60.0
844.7259,53.0
845.0396,57.0
845.3533,57.0
845.667,60.0
845.9806,59.0
846.2942,51.0
846.6078,61.0
846.92145,52.0
847.2349,62.0
847.54834,59.0
847.8618,55.0
848.1752,53.0
848.4885,57.0
848.8019,61.0
849.1151,58.0
849.4284,58.0
849.7416,61.0
850.0548,58.0
850.36804,63.0
850.68115,52.0
850.99426,53.0
851.3073,55.0
851.6203,63.0
851.9333,60.0
852.2462,53.0
852.55914,57.0
852.872,62.0
853.1848,56.0
853.4976,57.0
853.8104,57.0
854.1232,59.0
854.436,58.0
854.7486,60.0
855.0613,60.0
855.37384,52.0
855.6864,53.0
855.99896,72.0
856.31146,53.0
856.6239,65.0
856.93634,53.0
857.2487,57.0
857.5612,60.0
857.87354,54.0
858.1858,61.0
858.4981,61.0
858.8103,60.0
859.1225,66.0
859.43463,52.0
859.74677,63.0
860.05884,60.0
860.3709,60.0
860.6829,58.0
860.99493,54.0
861.307,61.0
861.6189,63.0
861.9308,51.0
862.2427,65.0
862.5545,52.0
862.8663,65.0
863.17804,65.0
863.48975,54.0
863.80145,59.0
864.1131,64.0
864.4247,58.0
864.7364,62.0
865.048,51.0
865.3595,61.0
865.67096,59.0
865.9824,63.0
866.2938,58.0
866.6052,58.0
866.91656,59.0
867.2279,67.0
867.5392,59.0
867.85046,59.0
868.1617,59.0
868.473,63.0
868.7842,52.0
869.0953,63.0
869.4064,60.0
869.7174,59.0
870.02844,59.0
870.3394,57.0
870.6504,57.0
870.9613,59.0
871.2722,60.0
871.58307,61.0
871.89404,52.0
872.20483,65.0
872.5156,52.0
872.82635,63.0
873.137,59.0
873.4477,54.0
873.75836,61.0
874.069,53.0
874.3795,53.0
874.69006,63.0
875.00055,52.0
875.31104,64.0
875.6216,62.0
875.932,62.0
876.2424,59.0
876.55273,56.0
876.86304,63.0
877.17334,61.0
877.4836,56.0
877.7938,61.0
878.104,54.0
878.4141,70.0
878.72424,63.0
879.0345,56.0
879.34454,62.0
879.65454,58.0
879.96454,61.0
880.27454,59.0
880.5844,59.0
880.89435,55.0
881.2042,58.0
881.51404,63.0
881.82385,59.0
882.1336,59.0
882.44336,59.0
882.7532,59.0
883.06287,60.0
883.3725,50.0
883.6821,59.0
883.9917,62.0
884.3013,52.0
884.6108,64.0
884.9203,60.0
885.22974,51.0
885.5392,59.0
885.8486,60.0
886.158,60.0
886.4674,50.0
886.7767,60.0
887.08594,61.0
887.3952,56.0
887.7044,63.0
888.0136,60.0
888.32275,57.0
888.63184,60.0
888.941,53.0
889.25,63.0
889.559,56.0
889.86816,61.0
890.1771,64.0
890.486,52.0
890.7949,65.0
891.1038,64.0
891.41266,55.0
891.72144,56.0
892.0302,56.0
892.339,55.0
892.6477,49.0
892.9564,59.0
893.2652,60.0
893.5738,55.0
893.8824,65.0
894.191,46.0
894.4995,56.0
894.808,67.0
895.11646,49.0
895.4249,61.0
895.73334,52.0
896.0417,62.0
896.3501,67.0
896.6584,52.0
896.9668,66.0
897.2751,63.0
897.5833,57.0
897.8915,62.0
898.1997,55.0
898.5078,62.0
898.8159,57.0
899.124,58.0
899.43207,63.0
899.7401,52.0
900.0481,61.0
900.3562,73.0
900.6641,47.0
900.97205,59.0
901.2799,61.0
901.58777,62.0
901.89557,60.0
902.20337,60.0
902.5111,66.0
902.81885,55.0
903.1265,62.0
903.4342,62.0
903.742,58.0
904.04956,59.0
904.3572,56.0
904.66473,63.0
904.9722,60.0
905.2797,62.0
905.5872,64.0
905.89465,61.0
906.202,58.0
906.5094,65.0
906.8168,56.0
907.1241,56.0
907.4315,64.0
907.7388,60.0
908.046,58.0
908.3532,62.0
908.6604,59.0
908.9675,56.0
909.27466,61.0
909.5817,64.0
909.8888,57.0
910.1958,59.0
910.5028,61.0
910.80994,61.0
911.1169,58.0
911.42377,67.0
911.73065,64.0
912.03754,59.0
912.34436,64.0
912.6512,59.0
912.95795,53.0
913.2647,59.0
913.5714,54.0
913.8781,61.0
914.18475,49.0
914.4915,66.0
914.79816,66.0
915.10474,52.0
915.41125,63.0
915.7178,64.0
916.02423,54.0
916.33075,57.0
916.63715,53.0
916.9437,71.0
917.25006,57.0
917.55646,58.0
917.86273,66.0
918.16907,55.0
918.47534,65.0
918.78156,63.0
919.08777,57.0
919.394,52.0
919.70013,58.0
920.0063,60.0
920.3124,59.0
920.6186,58.0
920.9246,67.0
921.23065,52.0
921.5366,64.0
921.8426,59.0
922.14856,51.0
922.45447,54.0
922.7603,62.0
923.06616,62.0
923.372,58.0
923.67786,56.0
923.9837,60.0
924.2895,55.0
924.5952,65.0
924.9009,53.0
925.20654,50.0
925.5122,53.0
925.8178,57.0
926.1234,60.0
926.42896,59.0
926.7345,55.0
927.04,65.0
927.34546,54.0
927.65106,67.0
927.9565,57.0
928.26184,56.0
928.56726,59.0
928.87256,61.0
929.1779,60.0
929.4832,60.0
929.78845,57.0
930.0937,65.0
930.3989,47.0
930.7041,64.0
931.0094,56.0
931.3145,57.0
931.6196,59.0
931.9247,67.0
932.22974,60.0
932.5348,58.0
932.8398,55.0
933.1448,68.0
933.4497,52.0
933.75464,66.0
934.0595,64.0
934.3644,55.0
934.6694,59.0
934.9742,63.0
935.279,60.0
935.58374,59.0
935.8885,51.0
936.19324,68.0
936.4979,52.0
936.80255,67.0
937.1072,64.0
937.4118,55.0
937.7164,55.0
938.02106,56.0
938.3256,60.0
938.6301,60.0
938.93463,56.0
939.2391,61.0
939.5435,55.0
939.8479,65.0
940.1523,56.0
940.45667,55.0
940.761,54.0
941.0653,57.0
941.36957,55.0
941.67395,63.0
941.9782,47.0
942.2824,60.0
942.58655,52.0
942.89075,62.0
943.1949,54.0
943.49896,58.0
943.80304,57.0
944.1071,64.0
944.41113,60.0
944.71515,62.0
945.0193,53.0
945.32324,61.0
945.62714,55.0
945.931,63.0
946.2349,53.0
946.5388,61.0
946.84265,56.0
947.1464,54.0
947.4502,61.0
947.75397,58.0
948.05774,51.0
948.36145,61.0
948.6652,55.0
948.96893,62.0
949.2725,47.0
949.5762,59.0
949.87976,59.0
950.18335,57.0
950.4869,58.0
950.7904,55.0
951.0939,59.0
951.39734,64.0
951.7008,51.0
952.00433,64.0
952.30774,56.0
952.6111,60.0
952.9144,59.0
953.2178,57.0
953.52106,60.0
953.82434,55.0
954.1276,58.0
954.43085,60.0
954.7341,53.0
955.03723,70.0
955.3404,63.0
955.6437,51.0
955.9468,55.0
956.2499,60.0
956.5529,60.0
956.85596,57.0
957.159,56.0
957.462,56.0
957.76495,47.0
958.06793,65.0
958.37085,63.0
958.6737,54.0
958.97675,60.0
959.2796,56.0
959.5824,62.0
959.88525,57.0
960.18805,60.0
960.4908,63.0
960.7935,52.0
961.09625,66.0
961.3989,55.0
961.7016,54.0
962.0043,59.0
962.3069,57.0
962.6096,62.0
962.9122,48.0
963.2147,56.0
963.5173,60.0
963.8198,59.0
964.1223,64.0
964.42474,59.0
964.72723,57.0
965.02966,58.0
965.33203,55.0
965.6344,62.0
965.9369,54.0
966.23926,58.0
966.54156,64.0
966.8438,56.0
967.1461,65.0
967.4483,65.0
967.75055,54.0
968.05273,60.0
968.3549,41.0
968.6571,60.0
968.9592,55.0
969.26135,63.0
969.56354,63.0
969.8656,52.0
970.16766,64.0
970.4697,62.0
970.7717,49.0
971.07367,65.0
971.3757,45.0
971.6776,60.0
971.9795,53.0
972.2814,60.0
972.58325,67.0
972.88525,52.0
973.1871,66.0
973.4889,65.0
973.79065,40.0
974.0924,61.0
974.39417,58.0
974.6959,62.0
974.9976,59.0
975.29926,55.0
975.60095,62.0
975.9026,52.0
976.2042,65.0
976.5059,65.0
976.8075,47.0
977.1091,56.0
977.4106,63.0
977.7121,60.0
978.0136,53.0
978.31506,59.0
978.6165,61.0
978.9179,52.0
979.21936,46.0
979.52075,66.0
979.8222,49.0
980.1236,62.0
980.4249,61.0
980.7262,60.0
981.02747,59.0
981.32874,58.0
981.63,61.0
981.9312,59.0
982.2324,55.0
982.53357,59.0
982.8348,51.0
983.13605,60.0
983.43713,56.0
983.7383,60.0
984.0393,55.0
984.3404,63.0
984.6414,58.0
984.94244,59.0
985.24347,59.0
985.54443,53.0
985.8454,53.0
986.14636,59.0
986.44727,62.0
986.7483,60.0
987.0492,53.0
987.35004,65.0
987.6509,64.0
987.9517,52.0
988.2525,62.0
988.5533,56.0
988.85406,53.0
989.15485,61.0
989.45557,53.0
989.7562,60.0
990.05707,55.0
990.3577,62.0
990.6584,63.0
990.959,52.0
991.25964,63.0
991.5602,54.0
991.8608,58.0
992.1613,57.0
992.46185,55.0
992.7624,63.0
993.06287,63.0
993.36334,59.0
993.66394,63.0
993.96436,53.0
994.2648,65.0
994.5652,60.0
994.86554,53.0
995.16595,61.0
995.46625,55.0
995.7666,66.0
996.0669,60.0
996.3672,60.0
996.6675,61.0
996.96783,57.0
997.26807,63.0
997.5683,54.0
997.86847,55.0
998.16864,59.0
998.4688,56.0
998.7689,60.0
999.0691,60.0
999.3692,54.0
999.66925,61.0
999.96936,53.0
1000.2694,61.0
1000.5695,46.0
1000.86957,62.0
1001.16956,64.0
1001.46954,57.0
1001.7695,62.0
1002.06946,62.0
1002.3694,54.0
1002.66925,58.0
1002.9691,58.0
1003.269,63.0
1003.56885,53.0
1003.86884,60.0
1004.16864,62.0
1004.46844,57.0
1004.76825,63.0
1005.068,60.0
1005.36774,61.0
1005.6675,61.0
1005.96716,46.0
1006.26685,60.0
1006.5665,52.0
1006.8662,61.0
1007.16583,61.0
1007.46564,57.0
1007.7652,63.0
1008.0648,61.0
1008.3644,53.0
1008.66394,59.0
1008.9635,54.0
1009.263,61.0
1009.5625,61.0
1009.862,59.0
1010.1615,62.0
1010.46094,57.0
1010.7605,63.0
1011.05994,61.0
1011.3593,40.0
1011.6587,65.0
1011.95807,51.0
1012.25745,61.0
1012.55676,54.0
1012.8561,53.0
1013.1554,62.0
1013.4547,59.0
1013.75397,63.0
1014.0532,53.0
1014.3526,47.0
1014.6518,63.0
1014.951,57.0
1015.2502,63.0
1015.5494,58.0
1015.8486,57.0
1016.1477,59.0
1016.44684,60.0
1016.7459,42.0
1017.04504,62.0
1017.3441,55.0
1017.6433,60.0
1017.9423,56.0
1018.2414,61.0
1018.5404,61.0
1018.8394,56.0
1019.13837,53.0
1019.4373,61.0
1019.7363,53.0
1020.0352,59.0
1020.33417,60.0
1020.63306,64.0
1020.93195,57.0
1021.23096,63.0
1021.52985,55.0
1021.8287,57.0
1022.1275,56.0
1022.42633,60.0
1022.72516,63.0
1023.0239,52.0
1023.3227,55.0
1023.6214,63.0
1023.92017,53.0
1024.2189,61.0
1024.5177,58.0
1024.8164,48.0
1025.1151,64.0
1025.4138,53.0
1025.7124,62.0
1026.0111,60.0
1026.3097,51.0
1026.6083,60.0
1026.9069,56.0
1027.2054,61.0
1027.504,57.0
1027.8026,62.0
1028.1012,61.0
1028.3997,55.0
1028.6982,64.0
1028.9967,61.0
1029.2952,54.0
1029.5936,58.0
1029.8921,57.0
1030.1906,62.0
1030.4889,61.0
1030.7874,57.0
1031.0857,59.0
1031.3843,56.0
1031.6826,61.0
1031.981,63.0
1032.2793,58.0
1032.5776,54.0
1032.8759,52.0
1033.1742,62.0
1033.4724,61.0
1033.7708,55.0
1034.069,62.0
1034.3672,58.0
1034.6654,61.0
1034.9637,50.0
1035.262,60.0
1035.5602,58.0
1035.8583,53.0
1036.1565,63.0
1036.4546,55.0
1036.7527,58.0
1037.0509,61.0
1037.349,58.0
1037.6471,64.0
1037.9451,29.0
1038.2433,56.0
1038.5414,58.0
1038.8394,53.0
1039.1375,65.0
1039.4354,61.0
1039.7334,53.0
1040.0314,61.0
1040.3293,53.0
1040.6273,59.0
1040.9253,53.0
1041.2231,57.0
1041.5211,59.0
1041.8191,53.0
1042.1171,62.0
1042.4149,55.0
1042.7128,55.0
1043.0106,62.0
1043.3085,36.0
1043.6063,59.0
1043.9042,48.0
1044.2019,60.0
1044.4998,61.0
1044.7975,56.0
1045.0953,61.0
1045.3932,55.0
1045.6909,60.0
1045.9886,63.0
1046.2864,50.0
1046.5841,63.0
1046.8817,57.0
1047.1794,56.0
1047.477,63.0
1047.7748,55.0
1048.0724,60.0
1048.3701,59.0
1048.6677,36.0
1048.9655,65.0
1049.263,54.0
1049.5605,63.0
1049.8582,57.0
1050.1558,56.0
1050.4532,58.0
1050.7509,53.0
1051.0483,65.0
1051.3458,63.0
1051.6434,56.0
1051.941,61.0
1052.2385,56.0
1052.536,65.0
1052.8334,59.0
1053.1309,55.0
1053.4283,58.0
1053.7257,63.0
1054.0232,34.0
1054.3206,60.0
1054.618,56.0
1054.9154,63.0
1055.2129,53.0
1055.5103,62.0
1055.8076,61.0
1056.105,53.0
1056.4022,60.0
1056.6996,55.0
1056.997,57.0
1057.2942,59.0
1057.5914,55.0
1057.8888,62.0
1058.186,60.0
1058.4833,63.0
1058.7806,55.0
1059.0779,61.0
1059.3751,60.0
1059.6724,57.0
1059.9695,62.0
1060.2667,62.0
1060.564,56.0
1060.8611,60.0
1061.1582,59.0
1061.4554,61.0
1061.7526,57.0
1062.0498,60.0
1062.3469,64.0
1062.644,57.0
1062.9412,62.0
1063.2383,57.0
1063.5353,55.0
1063.8324,63.0
1064.1294,55.0
1064.4265,61.0
1064.7235,53.0
1065.0206,61.0
1065.3176,60.0
1065.6147,53.0
1065.9117,61.0
1066.2087,56.0
1066.5057,56.0
1066.8027,64.0
1067.0997,54.0
1067.3966,57.0
1067.6936,53.0
1067.9906,60.0
1068.2875,64.0
1068.5844,53.0
1068.8815,64.0
1069.1783,64.0
1069.4752,55.0
1069.7721,42.0
1070.069,55.0
1070.3658,62.0
1070.6627,60.0
1070.9596,51.0
1071.2565,60.0
1071.5532,57.0
1071.8501,60.0
1072.147,49.0
1072.4438,56.0
1072.7406,58.0
1073.0375,57.0
1073.3342,65.0
1073.631,60.0
1073.9277,51.0
1074.2245,60.0
1074.5212,53.0
1074.818,62.0
1075.1147,33.0
1075.4115,51.0
1075.7083,56.0
1076.005,63.0
1076.3018,61.0
1076.5984,56.0
1076.8951,55.0
1077.1918,58.0
1077.4884,53.0
1077.785,61.0
1078.0818,56.0
1078.3784,56.0
1078.675,58.0
1078.9717,57.0
1079.2684,64.0
1079.5651,61.0
1079.8616,52.0
1080.1582,64.0
1080.4548,45.0
1080.7513,60.0
1081.048,54.0
1081.3445,63.0
1081.6411,66.0
1081.9376,52.0
1082.2343,62.0
1082.5309,62.0
1082.8274,51.0
1083.1239,62.0
1083.4204,52.0
1083.7169,64.0
1084.0134,55.0
1084.3099,57.0
1084.6064,65.0
1084.903,56.0
1085.1993,62.0
1085.4958,64.0
1085.7924,38.0
1086.0889,60.0
1086.3854,55.0
1086.6818,62.0
1086.9783,55.0
1087.2747,63.0
1087.5712,65.0
1087.8676,53.0
1088.164,62.0
1088.4603,52.0
1088.7567,47.0
1089.0531,64.0
1089.3496,57.0
1089.646,61.0
1089.9424,64.0
1090.2388,51.0
1090.5352,60.0
1090.8314,63.0
1091.1278,34.0
1091.4242,60.0
1091.7205,56.0
1092.0168,62.0
1092.3131,53.0
1092.6095,63.0
1092.9059,60.0
1093.2021,53.0
1093.4985,56.0
1093.7948,61.0
1094.0911,59.0
1094.3873,62.0
1094.6836,57.0
1094.9799,57.0
1095.2761,60.0
1095.5724,60.0
1095.8687,58.0
1096.165,59.0
1096.4613,59.0
1096.7576,56.0
1097.0538,63.0
1097.35,59.0
1097.6462,59.0
1097.9425,60.0
1098.2386,53.0
1098.5349,62.0
1098.831,59.0
1099.1273,52.0
1099.4235,62.0
1099.7198,57.0
1100.016,61.0
1100.3121,55.0
1100.6084,60.0
1100.9045,59.0
1101.2007,53.0
1101.4968,65.0
1101.793,60.0
1102.0891,63.0
1102.3853,59.0
1102.6814,52.0
1102.9777,61.0
1103.2738,57.0
1103.57,58.0
1103.8661,60.0
1104.1622,60.0
1104.4584,63.0
1104.7544,61.0
1105.0505,55.0
1105.3467,62.0
1105.6427,52.0
1105.9388,64.0
1106.235,60.0
1106.5311,55.0
1106.8273,49.0
1107.1233,54.0
1107.4194,64.0
1107.7155,57.0
1108.0115,56.0
1108.3076,68.0
1108.6036,55.0
1108.8998,62.0
1109.1958,62.0
1109.4918,56.0
1109.788,57.0
1110.0841,57.0
1110.3801,63.0
1110.6761,56.0
1110.9722,57.0
1111.2682,62.0
1111.5642,52.0
1111.8602,63.0
1112.1562,37.0
1112.4523,52.0
1112.7483,58.0
1113.0444,57.0
1113.3405,65.0
1113.6365,56.0
1113.9325,55.0
1114.2285,60.0
1114.5244,55.0
1114.8204,59.0
1115.1165,43.0
1115.4125,62.0
1115.7084,63.0
1116.0044,57.0
1116.3004,65.0
1116.5964,63.0
1116.8925,58.0
1117.1885,62.0
1117.4844,38.0
1117.7804,59.0
1118.0763,44.0
1118.3723,60.0
1118.6682,60.0
1118.9642,57.0
1119.2603,64.0
1119.5562,60.0
1119.8522,52.0
1120.1482,61.0
1120.4441,50.0
1120.7401,63.0
1121.036,60.0
1121.332,61.0
1121.6279,63.0
1121.9238,57.0
1122.2198,64.0
1122.5157,60.0
1122.8116,35.0
1123.1077,62.0
1123.4037,54.0
1123.6996,65.0
1123.9955,62.0
1124.2915,56.0
1124.5874,60.0
1124.8833,57.0
1125.1792,63.0
1125.4751,63.0
1125.7711,56.0
1126.067,63.0
1126.3629,53.0
1126.6589,65.0
1126.9548,59.0
1127.2507,62.0
1127.5468,61.0
1127.8427,57.0
1128.1385,45.0
1128.4344,61.0
1128.7303,55.0
1129.0262,60.0
1129.3221,52.0
1129.618,64.0
1129.914,59.0
1130.21,53.0
1130.5059,53.0
1130.8018,60.0
1131.0978,53.0
1131.3937,53.0
1131.6896,62.0
1131.9855,62.0
1132.2814,53.0
1132.5773,63.0
1132.8732,58.0
1133.1691,56.0
1133.4651,56.0
1133.761,57.0
1134.0569,57.0
null
